# Model  x [km]   T[K]     ne [cm^-3]    vturb [cm/s]       B[G]       thetaB[deg]       chiB[deg]
'Z'
'MAGNETIC'
NORMAL_ABUNDANCES
          55
      -146.89884      6780.30   3.6020464e+14      0.60000000       2.4620000      3640.00      52.0000      52.0000
      -137.56006      6536.00   2.4212362e+14      0.60000000       2.4290000      3540.00      51.5000      51.5000
      -127.08877      6291.90   1.6391314e+14      0.60000000       2.3960000      3440.00      51.0000      51.0000
      -115.46655      6048.50   1.1412564e+14      0.60000000       2.3630000      3350.00      50.5000      50.5000
      -103.01162      5806.50   8.3429683e+13      0.60000000       2.3300000      3260.00      50.0000      50.0000
      -90.426168      5569.50   6.4227696e+13      0.60000000       2.2970000      3190.00      49.5000      49.5000
      -78.436394      5340.70   5.0783630e+13      0.60000000       2.2640000      3110.00      49.0000      49.0000
      -67.346004      5117.30   3.9843125e+13      0.60000000       2.2310000      3050.00      48.5000      48.5000
      -57.065744      4902.90   3.0460479e+13      0.60000000       2.1980000      2990.00      48.0000      48.0000
      -47.342698      4700.40   2.2610738e+13      0.60000000       2.1650000      2940.00      47.5000      47.5000
      -37.923379      4513.90   1.6474015e+13      0.60000000       2.1320000      2890.00      47.0000      47.0000
      -28.588113      4342.30   1.1906450e+13      0.60000000       2.0990000      2850.00      46.5000      46.5000
      -19.191483      4188.80   8.6951472e+12      0.60000000       2.0660000      2810.00      46.0000      46.0000
      -9.6643948      4053.40   6.4878977e+12      0.60000000       2.0330000      2780.00      45.5000      45.5000
       0.0000000      3940.50   5.0157756e+12      0.60000000       2.0000000      2750.00      45.0000      45.0000
       9.7547651      3854.00   4.0395698e+12      0.60000000       1.9670000      2730.00      44.5000      44.5000
       19.546959      3785.00   3.3384574e+12      0.60000000       1.9340000      2710.00      44.0000      44.0000
       29.356853      3726.80   2.7991274e+12      0.60000000       1.9010000      2690.00      43.5000      43.5000
       39.186336      3676.70   2.3698368e+12      0.60000000       1.8680000      2680.00      43.0000      43.0000
       49.043984      3633.60   2.0218806e+12      0.60000000       1.8350000      2670.00      42.5000      42.5000
       58.935895      3597.90   1.7390042e+12      0.60000000       1.8020000      2660.00      42.0000      42.0000
       68.873623      3564.70   1.4977724e+12      0.60000000       1.7690000      2650.00      41.5000      41.5000
       78.880268      3534.90   1.2931590e+12      0.60000000       1.7360000      2650.00      41.0000      41.0000
       88.969464      3511.60   1.1240391e+12      0.60000000       1.7030000      2650.00      40.5000      40.5000
       99.132082      3498.00   9.8869776e+11      0.60000000       1.6700000      2650.00      40.0000      40.0000
       109.34654      3489.40   8.7553049e+11      0.60000000       1.6370000      2640.00      39.5000      39.5000
       119.59994      3482.20   7.7721845e+11      0.60000000       1.6040000      2640.00      39.0000      39.0000
       129.88493      3475.60   6.9102198e+11      0.60000000       1.5710000      2640.00      38.5000      38.5000
       140.19511      3468.90   6.1477692e+11      0.60000000       1.5380000      2650.00      38.0000      38.0000
       150.52560      3461.60   5.4686464e+11      0.60000000       1.5050000      2650.00      37.5000      37.5000
       160.87278      3453.60   4.8625600e+11      0.60000000       1.4720000      2650.00      37.0000      37.0000
       171.23316      3445.20   4.3233236e+11      0.60000000       1.4390000      2650.00      36.5000      36.5000
       181.60302      3436.40   3.8432944e+11      0.60000000       1.4060000      2640.00      36.0000      36.0000
       191.97926      3427.00   3.4146353e+11      0.60000000       1.3730000      2640.00      35.5000      35.5000
       202.35952      3417.10   3.0322003e+11      0.60000000       1.3400000      2640.00      35.0000      35.0000
       212.74247      3406.50   2.6899632e+11      0.60000000       1.3070000      2630.00      34.5000      34.5000
       223.12817      3395.30   2.3840938e+11      0.60000000       1.2740000      2620.00      34.0000      34.0000
       233.51789      3383.40   2.1103182e+11      0.60000000       1.2410000      2610.00      33.5000      33.5000
       243.91512      3370.80   1.8652783e+11      0.60000000       1.2080000      2590.00      33.0000      33.0000
       254.32480      3357.90   1.6471818e+11      0.60000000       1.1750000      2570.00      32.5000      32.5000
       264.75259      3345.10   1.4541031e+11      0.60000000       1.1420000      2550.00      32.0000      32.0000
       275.20519      3332.40   1.2831037e+11      0.60000000       1.1090000      2530.00      31.5000      31.5000
       285.69207      3319.20   1.1303379e+11      0.60000000       1.0760000      2500.00      31.0000      31.0000
       296.22711      3305.50   9.9386500e+10      0.60000000       1.0430000      2460.00      30.5000      30.5000
       306.82908      3291.10   8.7162198e+10      0.60000000       1.0100000      2420.00      30.0000      30.0000
       317.52354      3276.00   7.6214876e+10      0.60000000      0.97700000      2380.00      29.5000      29.5000
       328.34486      3260.10   6.6399784e+10      0.60000000      0.94400000      2330.00      29.0000      29.0000
       339.33913      3243.50   5.7612916e+10      0.60000000      0.91100000      2270.00      28.5000      28.5000
       350.56920      3225.90   4.9715734e+10      0.60000000      0.87800000      2210.00      28.0000      28.0000
       362.12207      3207.50   4.2634509e+10      0.60000000      0.84500000      2140.00      27.5000      27.5000
       374.12035      3188.50   3.6293082e+10      0.60000000      0.81200000      2070.00      27.0000      27.0000
       386.74065      3170.50   3.0696635e+10      0.60000000      0.77900000      1980.00      26.5000      26.5000
       400.24573      3155.70   2.5831676e+10      0.60000000      0.74600000      1900.00      26.0000      26.0000
       415.05188      3142.80   2.1477502e+10      0.60000000      0.71300000      1800.00      25.5000      25.5000
       431.87891      3129.70   1.7429127e+10      0.60000000      0.68000000      1700.00      25.0000      25.0000
